*2020/10/19 19:48:24.40
*IOS HEADER VERSION 2.0      2016/04/28 2016/06/13 IVF16

*FILE
    START TIME          : UTC 2011/02/09 19:43:56.000
    TIME INCREMENT      : 0 0 0 0.416667E-01 0  ! (day hr min sec ms)
    NUMBER OF RECORDS   : 14
    DATA DESCRIPTION    : Bottle:Rosette:Up:Stop + CTD:Up
    FILE TYPE           : ASCII
    CRC                 : B85F5E22
    NUMBER OF CHANNELS  : 53

    $TABLE: CHANNELS
    ! No Name                                        Units           Minimum        Maximum
    !--- ------------------------------------------- --------------- -------------- --------------
       1 Sample_Number                               n/a             15             28
       2 Bottle_Number                               n/a             1              14
       3 Bottle:Firing_Sequence                      n/a             1              14
       4 Pressure                                    decibar         1.2            99.1
       5 Temperature:Secondary                       'deg C (ITS90)' 7.6204         8.9403
       6 Transmissivity                              %/metre         56             62.2
       7 Fluorescence:URU:Seapoint                   mg/m^3          0.98E-01       1.101
       8 PAR                                         uE/m^2/sec      0.1            253.5
       9 Salinity:T1:C1                              PSS-78          29.1685        33.248
      10 Oxygen:Dissolved:SBE                        mL/L            3.99           6.99
      11 Oxygen:Dissolved:SBE                        umol/kg         173.6          305.2
      12 Number_of_bin_records                       n/a             192            241
      13 Nitrate_plus_Nitrite                        umol/L          5.7            22.1
      14 Flag:Nitrate_plus_Nitrite                   n/a
      15 Silicate                                    umol/L          8.6            33.1
      16 Flag:Silicate                               n/a
      17 Phosphate                                   umol/L          0.83           1.83
      18 Flag:Phosphate                              n/a
      19 Dimethyl_Sulphide                           nmol/L          0              1
      20 Flag:Dimethyl_Sulphide                      n/a
      21 Dimethylsulfoniopropionate_Dissolved        nmol/L          0.13           0.34
      22 Flag:Dimethylsulfoniopropionate_Dissolved   ' '
      23 Dimethylsulfoniopropionate_Total            nmol/L          0              17
      24 Flag:Dimethylsulfoniopropionate_Total       ' '
      25 Chlorophyll:Extracted                       mg/m^3          0.3E-01        0.75
      26 Flag:Chlorophyll:Extracted                  n/a
      27 Phaeo-Pigment:Extracted                     mg/m^3          0.19           0.36
      28 HPLC:Chl-c3                                 mg/m^3          0.19E-01       0.3E-01
      29 HPLC:Chlide-a                               mg/m^3          0              0
      30 HPLC:MgDVP                                  mg/m^3          0.2E-02        0.6E-02
      31 HPLC:Chl-c2                                 mg/m^3          0.28E-01       0.55E-01
      32 HPLC:Chl-c1                                 mg/m^3          0              0.2E-02
      33 HPLC:Me-chlide                              mg/m^3          0              0
      34 HPLC:Peri                                   mg/m^3          0              0.22E-01
      35 HPLC:Pheide-a                               mg/m^3          0              0
      36 HPLC:But-fuco                               mg/m^3          0.9E-02        0.13E-01
      37 HPLC:Fuco                                   mg/m^3          0.71E-01       0.159
      38 HPLC:Neo                                    mg/m^3          0.4E-02        0.8E-02
      39 HPLC:Pras                                   mg/m^3          0.6E-02        0.1E-01
      40 HPLC:Viola                                  mg/m^3          0              0.7E-02
      41 HPLC:Hex-fuco                               mg/m^3          0.2E-01        0.54E-01
      42 HPLC:Diadino                                mg/m^3          0.7E-02        0.38E-01
      43 HPLC:Allo                                   mg/m^3          0.5E-02        0.49E-01
      44 HPLC:Diato                                  mg/m^3          0              0.4E-02
      45 HPLC:Zea                                    mg/m^3          0              0.5E-02
      46 HPLC:Lut                                    mg/m^3          0              0.2E-02
      47 HPLC:Chl-b                                  mg/m^3          0.45E-01       0.56E-01
      48 HPLC:DVChl-a                                mg/m^3          0              0
      49 HPLC:Chl-a                                  mg/m^3          0.274          0.479
      50 HPLC:Phe                                    mg/m^3          0              0
      51 HPLC:B-Car                                  mg/m^3          0.2E-02        0.7E-02
      52 HPLC:TChl-a                                 mg/m^3          0.274          0.479
      53 Flag:HPLC                                   ' '
    $END

    $TABLE: CHANNEL DETAIL
    ! No  Pad   Start  Width  Format  Type  Decimal_Places
    !---  ----  -----  -----  ------  ----  --------------
       1  -99   ' '        5  I       I       0
       2  -99   ' '        5  I       I       0
       3  -99   ' '        5  I       I       0
       4  -99   ' '        7  F       ' '     1
       5  -99   ' '        9  F       ' '     4
       6  -99   ' '        6  F       ' '     1
       7  -99   ' '        8  F       ' '     3
       8  -99   ' '        7  F       ' '     1
       9  -99   ' '        9  F       ' '     4
      10  -99   ' '        7  F       ' '     2
      11  -99   ' '        6  F       ' '     1
      12  -99   ' '        5  I       I       0
      13  -99   ' '        7  F       R4      2
      14  -99   ' '        3  NQ      C     ' '
      15  -99   ' '        7  F       R4      2
      16  -99   ' '        3  NQ      C     ' '
      17  -99   ' '        8  F       R4      3
      18  -99   ' '        3  NQ      C     ' '
      19  -99   ' '        7  F       R4      2
      20  -99   ' '        3  NQ      C     ' '
      21  -99   ' '        7  F       R4      2
      22  -99   ' '        3  NQ      C     ' '
      23  -99   ' '        7  F       R4      2
      24  -99   ' '        3  NQ      C     ' '
      25  -99   ' '        7  F       R4      2
      26  -99   ' '        3  NQ      C     ' '
      27  -99   ' '        7  F       R4      2
      28  -99   ' '        8  F       R4      3
      29  -99   ' '        8  F       R4      3
      30  -99   ' '        8  F       R4      3
      31  -99   ' '        8  F       R4      3
      32  -99   ' '        8  F       R4      3
      33  -99   ' '        8  F       R4      3
      34  -99   ' '        8  F       R4      3
      35  -99   ' '        8  F       R4      3
      36  -99   ' '        8  F       R4      3
      37  -99   ' '        8  F       R4      3
      38  -99   ' '        8  F       R4      3
      39  -99   ' '        8  F       R4      3
      40  -99   ' '        8  F       R4      3
      41  -99   ' '        8  F       R4      3
      42  -99   ' '        8  F       R4      3
      43  -99   ' '        8  F       R4      3
      44  -99   ' '        8  F       R4      3
      45  -99   ' '        8  F       R4      3
      46  -99   ' '        8  F       R4      3
      47  -99   ' '        8  F       R4      3
      48  -99   ' '        8  F       R4      3
      49  -99   ' '        8  F       R4      3
      50  -99   ' '        8  F       R4      3
      51  -99   ' '        8  F       R4      3
      52  -99   ' '        8  F       R4      3
      53  -99   ' '        3  NQ      C     ' '
    $END
    $REMARKS
        Flag channels initialized with zeros. Non-zero values have the following significance:
        --------------------------------------------------------------------------------------
        1 = Sample for this measurement was drawn from water bottle but not analyzed
            (not normally used).
        2 = Acceptable measurement (not normally used).
        3 = Questionable measurement (no problem observed in sampling or analysis,
            but value is not trusted, nonetheless; includes outlyers).
        4 = Bad measurement (known problem with sampling or analysis, but not
            serious enough to completely discard the value).
        5 = Not reported (lost sample; unredeemably bad measurement).
        6 = Mean of replicate measurements.
        7 = Manual chromatographic peak measurement.
        8 = Irregular digital chromatographic peak integration.
        9 = Sample not drawn for this measurement from this bottle (not normally used).
        --------------------------------------------------------------------------------------
    $END

*ADMINISTRATION
    MISSION             : 2011-01
    AGENCY              : IOS, Ocean Sciences Division, Sidney, B.C.
    COUNTRY             : Canada
    PROJECT             : Line P
    SCIENTIST           : Robert M.
    PLATFORM            : John P. Tully

*LOCATION
    GEOGRAPHIC AREA     : North-East Pacific
    STATION             : P2
    EVENT NUMBER        : 4
    LATITUDE            :  48  35.99000 N  ! (deg min)
    LONGITUDE           : 126   0.03000 W  ! (deg min)
    WATER DEPTH         : 115

*INSTRUMENT
    TYPE                : Sea-Bird CTD
    MODEL               : SBE-911plus
    SERIAL NUMBER       : 0506
    LOCATION            : Mid-ship                              ! custom item
    $REMARKS
        SOFTWARE VERSION SEASAVE V 7.20G
    $END

*HISTORY

    $TABLE: PROGRAMS
    !   Name                     Vers   Date       Time     Recs In   Recs Out
    !   ------------------------ ------ ---------- -------- --------- ---------
        SBE_IOS                  3.1    2011/08/30 09:12:51      3325      3325
        CLEAN                    5.0.3  2011/08/30 09:14:07 ?         ?
        CLEAN                    5.0.3  2011/08/30 09:46:22      3325      3325
        ADDSAMP                  3.5    2011/08/30 09:47:18      3325      3325
        BINAVE                   4.1.1  2011/08/30 09:48:05      3325        14
        MERGE                    3.4    2011/08/30 09:54:55        14        14
        CLEAN                    5.0.3  2011/08/30 09:55:00 ?         ?
        SORT                     3.5    2011/08/30 10:17:20        14        14
        REMOVECH                 8.0    2011/08/30 10:22:44        14        14
        CHGUNITS                 3.0    2011/08/30 10:51:35        14        14
        REORDER                  1.3    2011/08/30 10:51:40 ?         ?
        HDREDIT2                 2.5.1  2011/10/12 15:38:26 ?         ?
        CALIB                    11.7   2013/06/04 13:15:39        14        14
        HDREDIT2                 2.6    2013/07/08 08:50:53 ?         ?
        CHANGE_CTD_CHANNEL_NAMES 1.0    2013/12/16 15:35:14        14        14
        CHANGE_FLAGS             2.0    2014/11/20 09:57:29        14        14
        SORT                     3.6    2015/07/16 09:35:09        14        14
        MERGE                    3.5    2015/07/16 09:41:00        14        14
        REORDER                  1.3.1  2020/10/19 19:37:52 ?         ?
        MERGE                    3.5.1  2020/10/19 19:39:57        14        14
        SORT                     3.6    2020/10/19 19:40:16        14        14
        CLEAN                    5.2.4  2020/10/19 19:40:33        14        14
        HDREDIT2                 3.2    2020/10/19 19:46:46 ?         ?
        HDREDIT2                 3.2    2020/10/19 19:48:24 ?         ?
    $END
$REMARKS
-CLEAN functions: 2011/08/30 09:14:06 20
 Set event to last  4 characters of file name
-CLEAN functions: 2011/08/30 09:46:21 20
 Reset #RECS, MIN & MAX values in header.
 Insert Pad Values in Channel: Salinity:T0:C0 [PSS-78]
   where channel Salinity:T0:C0 [PSS-78] is in the range 1000 to 9000
        0 data records in pad range.
-The following ADDSAMP parameters were used:
 Sample Number Lookup File: Q:\Cruise_Data_Processing\2011-01\Processing\hydro\addsamp.csv
 Bottle Channel Name: Bottle_Number
-The following BINAVE parameters were used:
 Bin channel = Bottle_Number
 Averaging interval =    1.00
 Minimum bin value =       0.000
 Average value was used
 Interpolated values were NOT used for empty bins
 Channel 'NUMBER_OF_BIN_RECORDS' was added to file.
-The following MERGE parameters were used: 2011/08/30 09:54:55 2011/08/30 09:54:55 2011/08/30 09:54:
 Merge Channel: Bottle_Number
 Merge Scheme Used: Add Secondary to Primary
 Overlap Scheme Used: Keep Primary
 Primary Channels to Include: ALL
 Secondary Channels to Include:
   Salinity:Bottle,
   Flag:Salinity:Bottle,
   Chlorophyll:Extracted,
   Flag:Chlorophyll:Extracted,
   Phaeo-Pigment:Extracted,
   Oxygen:Dissolved,
   Flag:Oxygen:Dissolved,
   Nitrate_plus_Nitrite,
   Flag:Nitrate_plus_Nitrite,
   Silicate,
   Flag:Silicate,
   Phosphate,
   Flag:Phosphate,
   Dimethyl_Sulphide,
   Flag:Dimethyl_Sulphide
 Primary file  : Q:\Cruise_Data_Processing\2011-01\Processing\hydro\2011-01-0004.samavg
 Secondary file: Q:\Cruise_Data_Processing\2011-01\Processing\hydro\2011-01-0004.mrgcln1s

Comments from secondary file:
Q:\Cruise_Data_Processing\2011-01\Processing\hydro\2011-01-0004.mrgcln1s
------------------------------------------------------------------------
-SORT parameters: 2011/08/30 09:54:47
Sorted in ascending order of channel Bottle_Number
-CLEAN functions: 2011/08/30 09:55:00 20
 Remove Sea-Bird comments from the header.
-SORT parameters: 2011/08/30 10:17:20
 Sorted in ascending order of channel Pressure
-REMOVECH 2011/08/30 10:22:44
 The following CHANNEL(S) were removed:
  Scan_Number
  Temperature:Primary [deg C (ITS90)]
  Conductivity:Primary [S/m]
  Conductivity:Secondary [S/m]
  Oxygen:Voltage:SBE [volts]
  Altimeter [metres]
  Status:Pump
  Descent_Rate [m/s]
  Salinity:T0:C0 [PSS-78]
  Flag
-CHANGE units:
 'Oxygen:Dissolved:SBE [mL/L]' changed from mL/L    to umol/kg
-HEADER EDITS: 2011/10/12 15:38:26
 Applied edit header: P:\Cruise_Data_Processing\2011-01\Processing\doc\2011-01-bot-hdr.txt
 Channel  2: Bottle:Firing_Sequence [n/a]
   Name:   Bottle_Number ==> Bottle:Firing_Sequence
 Channel  3: Pressure [decibar]
   Units:  dbars ==> decibar
   Format: F10.3 ==> F7.1
 Channel  6: Fluorescence:URU:Seapoint [mg/m^3]
   Name:   Fluorescence:Seapoint ==> Fluorescence:URU:Seapoint
 Channel  7: PAR [uE/m^2/sec]
   Format: F11.3 ==> F7.1
 Channel  8: Salinity:Practical:T1:C1 [PSS-78]
   Name:   Salinity:T1:C1 ==> Salinity:Practical:T1:C1
 Channel  1: Bottle_Number [n/a]
   Name:   Bottle:Position ==> Bottle_Number
 Channel  1: Bottle_Number [n/a]
   Name:   Bottle:Position ==> Bottle_Number
 Channel  9: Oxygen:Dissolved:SBE [mL/L]
   Format: F8.3 ==> F7.2
 Channel 13: Chlorophyll:Extracted [mg/m^3]
   Units: ==> mg/m^3
 Channel 15: Phaeo-Pigment:Extracted [mg/m^3]
   Units: ==> mg/m^3
 Channel 22: Dimethyl_Sulphide [nmol/L]
   Units: ==> nmol/L
 Channel 10: Oxygen:Dissolved:SBE [umol/kg]
   Format: F6.2 ==> F6.1
-CALIB parameters: 2013/06/04 13:15:39
 Calibration type = Correct
 Mode: ONLY - calibration specs from Cal File only.
 Calibration file = C:\DATA\Nutrients\doc\Nutrients-recal1.ccf
 Calibrations applied:
 Ch Name                          Units    Fmla Coefficents
 -- ----------------------------- --------- --- -----------------------------
 16 Nitrate_plus_Nitrite          umol/L     10  0.1709000E+00  0.9812000E+00
 20 Phosphate                     umol/L     10  0.4530000E-01  0.1011500E+01
-HEADER EDITS: 2013/07/08 08:50:53
 Applied edit header: C:\DATA\Nutrients\doc\headedit-correction.txt
-SORT parameters: 2015/07/16 09:35:09
 Sorted in ascending order of channel Sample_Number
-The following MERGE parameters were used: 2015/07/16 09:41:00
 Merge Channel: Sample_Number
 Merge Scheme Used: Add Secondary to Primary
 Overlap Scheme Used: Keep Primary
 Primary Channels to Include: ALL
 Secondary Channels to Include:
   Dimethylsulfoniopropionate_Dissolved,
   Flag:Dimethylsulfoniopropionate_Dissolve,
   Dimethylsulfoniopropionate_Total,
   Flag:Dimethylsulfoniopropionate_Total
 Primary file  : P:\Cruise_Data_Processing\DMSP\2011-01\Bottle\2011-01-0004.che1
 Secondary file: P:\Cruise_Data_Processing\DMSP\2011-01\Bottle\2011-01-0004.dmsp
-The following MERGE parameters were used: 2020/10/19 19:39:57
 Merge Channel: sample_number
 Merge Scheme Used: Add Secondary to Primary
 Overlap Scheme Used: Keep Primary
 Primary Channels to Include: ALL
 Secondary Channels to Include:
   HPLC:Chl-c3 [ ],
   HPLC:Chlide-a [ ],
   HPLC:MgDVP [ ],
   HPLC:Chl-c2 [ ],
   HPLC:Chl-c1 [ ],
   HPLC:Me-chlide [ ],
   HPLC:Peri [ ],
   HPLC:Pheide-a [ ],
   HPLC:But-fuco [ ],
   HPLC:Fuco [ ],
   HPLC:Neo [ ],
   HPLC:Pras [ ],
   HPLC:Viola [ ],
   HPLC:Hex-fuco [ ],
   HPLC:Diadino [ ],
   HPLC:Allo [ ],
   HPLC:Diato [ ],
   HPLC:Zea [ ],
   HPLC:Lut [ ],
   HPLC:Chl-b [ ],
   HPLC:C2mgdg,
   HPLC:DVChl-a [ ],
   HPLC:Chl-a [ ],
   HPLC:Phe [ ],
   HPLC:B-Car [ ],
   HPLC:TChl-a [ ],
   Flag:HPLC [ ]
 Primary file  : C:\Users\Samantha\OneDrive\Documents\SH ios\HPLC\2011\2011-001\2011-001-fixes\2011-
001-0004.che2
 Secondary file: C:\Users\Samantha\OneDrive\Documents\SH ios\HPLC\2011\2011-001\2011-001-fixes\2011-
001-0004.hplc
-SORT parameters: 2020/10/19 19:40:16
 Sorted in ascending order of channel Pressure [decibar]
-CLEAN functions: 2020/10/19 19:40:33
 Reset #RECS, MIN & MAX values in header.
 Change Pad Value to -99 in All Channels.
 Change character data from " " to "0" in channels Flag:*
-HEADER EDITS: 2020/10/19 19:46:46
 Applied edit header: C:\Users\Samantha\OneDrive\Documents\SH ios\HPLC\2011\2011-001-bot-hdr1.txt
 Channel  2: Bottle_Number [n/a]
   Format: I3 ==> I5
 Channel  3: Bottle:Firing_Sequence [n/a]
   Format: I3 ==> I5
 Channel 13: Nitrate_plus_Nitrite [umol/L]
   Format: F6.1 ==> F7.2
 Channel 28: HPLC:Chl-c3 [mg/m^3]
   Units: ==> mg/m^3
 Channel 29: HPLC:Chlide-a [mg/m^3]
   Units: ==> mg/m^3
 Channel 30: HPLC:MgDVP [mg/m^3]
   Units: ==> mg/m^3
 Channel 31: HPLC:Chl-c2 [mg/m^3]
   Units: ==> mg/m^3
 Channel 32: HPLC:Chl-c1 [mg/m^3]
   Units: ==> mg/m^3
 Channel 33: HPLC:Me-chlide [mg/m^3]
   Units: ==> mg/m^3
 Channel 34: HPLC:Peri [mg/m^3]
   Units: ==> mg/m^3
 Channel 35: HPLC:Pheide-a [mg/m^3]
   Units: ==> mg/m^3
 Channel 36: HPLC:But-fuco [mg/m^3]
   Units: ==> mg/m^3
 Channel 37: HPLC:Fuco [mg/m^3]
   Units: ==> mg/m^3
 Channel 38: HPLC:Neo [mg/m^3]
   Units: ==> mg/m^3
 Channel 39: HPLC:Pras [mg/m^3]
   Units: ==> mg/m^3
 Channel 40: HPLC:Viola [mg/m^3]
   Units: ==> mg/m^3
 Channel 41: HPLC:Hex-fuco [mg/m^3]
   Units: ==> mg/m^3
 Channel 42: HPLC:Diadino [mg/m^3]
   Units: ==> mg/m^3
 Channel 43: HPLC:Allo [mg/m^3]
   Units: ==> mg/m^3
 Channel 44: HPLC:Diato [mg/m^3]
   Units: ==> mg/m^3
 Channel 45: HPLC:Zea [mg/m^3]
   Units: ==> mg/m^3
 Channel 46: HPLC:Lut [mg/m^3]
   Units: ==> mg/m^3
 Channel 47: HPLC:Chl-b [mg/m^3]
   Units: ==> mg/m^3
 Channel 48: HPLC:DVChl-a [mg/m^3]
   Units: ==> mg/m^3
 Channel 49: HPLC:Chl-a [mg/m^3]
   Units: ==> mg/m^3
 Channel 50: HPLC:Phe [mg/m^3]
   Units: ==> mg/m^3
 Channel 51: HPLC:B-Car [mg/m^3]
   Units: ==> mg/m^3
 Channel 52: HPLC:TChl-a [mg/m^3]
   Units: ==> mg/m^3
-HEADER EDITS: 2020/10/19 19:48:24
 Applied edit header: C:\Users\Samantha\OneDrive\Documents\SH ios\HPLC\2011\2011-001-bot-hdr2.txt
$END

*COMMENTS
   Sample_Number 15: DMSP-D:  Instrument problem
                     DMSP-T:  Detection limit increased to 1.0 nM for this sample

        Analysis methods:
        -----------------
            Chlorophyll samples were filtered onto 25mm GF/F filters and stored
            in glass scintillation vials at -20C prior to analysis. Samples were
            extracted in 90% acetone at -20C for 24 hours in the lab and analyzed
            on a Turner 10AU fluorometer which is calibrated annually with
            commercially pure chlorophyll a (Sigma).
            Fluorescence readings taken before and after acidification were used to
            calculate chlorophyll and phaeopigment concentrations (Holm-Hansen et al 1965).
            Chlorophyll samples were analyzed on board ship in a controlled temperature
            lab and at IOS.
            The average of two samples is reported. Variability is assessed as the
            CV% (std dev / mean*100).
            For details see worksheet “CV%” in file 2011-01CHL*.xls.
            Phaeopigment data are provided for information only and no quality flags are
            assigned to them.

            HPLC samples were filtered onto 47mm GF/F filters and stored at -80C prior to
            analysis.
            Samples were extracted in 95% methanol at -20C for 24 hours in the lab and analyzed
            on a WATERS 2695 HPLC separations system as detailed in Nemcek and Pena, 2014.
            Analysis was performed ~6-7 months after collection.
            The average of two samples is reported.
            Variability is assessed as the %CV (std dev/mean*100) for duplicate pairs.
            All pigments below the limit of detection (LOD) are assigned a zero value.
            TChl-a is the sum of Chl-a, DVchl-a, Chlide-a and Me-chlide
            For further information see file QF 2011-001_HPLC*.xlsx.

            Oxygen samples were analyzed on an automated Winkler titration system
            (Brinkmann Dosimat model 765 and a PC950 Colorimeter controlled by
            AutoOxy software V3.4) with modifications based on Carpenter (1965)
            and adhering to WOCE protocols (Culberson 1991).
            All samples were analyzed at sea.
            A shift in the DO standardization parameters occurred between events #32
            and #44; this was not investigated to determine if the resultant change in
            Thiosulfate normality was real, or the result of a shift in lab temperature.
            Checks of the fit of SBE Dissolved Oxygen against titrated DO suggest that
            the titrated values from the first part of the cruise are lower than those
            of the latter part by about 0.02mL/L.
            For details including a duplicate analysis, see document 2011-01oxy*.xls.

            Salinity samples were collected in glass bottles and analyzed on Guildline
            Autosal model 8400B, S/N 68572, at IOS. Salinometers are standardized
            with IAPSO standard seawater. Full results are in file 2011-01-sal*.xls.

            Nutrient samples were collected in plastic tubes. Most samples were stored
            frozen and later analysed at IOS. Deep Silicate samples (400m and deeper)
            were analyzed cool at IOS. An Astoria analyzer was used following methods
            described in Barwell-Clarke and Whitney (1996).
            File "QF 2011-01nuts*.xls" includes the raw data and a precision study.

            The minimum detectable level for DMS is 0.10 nM, so “0” values should be
            interpreted as <0.10. For details on the collection and analysis of the
            DMS data see file 2011-01 DMS Report.doc and for data see
            DMS 2011-01 summary.xls.

            The minimum detectable level for DMSP_Dissolved is 0.10 nmol/L, so “0” values
            should be interpreted as <0.10 nmol/L.
            The minimum detectable level for DMSP_Total is 1 nmol/L, so “0” values should
            be interpreted as <1 nmol/L.
            For details on analysis and raw data, see document "2011-01 dmsp QF summary.xls.

            References:
            1. Barwell-Clarke, J. and Whitney, F. 1996. Institute of Ocean Sciences
            Nutrient Methods and Analysis. Canadian Technical Report of Hydrography
            and Ocean Sciences, No. 182, 43 pp.
            2. Carpenter, J.H. 1965. The Chesapeake Bay Institute Technique for the
            Winkler Dissolved Oxygen Method. Limmnol. & Oceanogr., 10: 141-143.
            3. Culberson, C.H. 1991. Dissolved oxygen. WOCE Hydrographic
            Programme Operations and Methods (July 1991). 15pp.
            4. Holm-Hansen, O., Lorenzen, C.J., Holmes, R.W., and Strickland J.D.H. 1965.
            Fluorometric Determination of Chlorophyll. J.du Cons. Intl. Pour l’Epl.
            De la Mer. 30:3-15.
            5. Nemcek, N. and Peña, M.A. 2014. Institute of Ocean Sciences Protocols for
            Phytoplankton Pigment Analysis by HPLC. Can. Tech. Rep. Fish. Aquat. Sci.
            3117: x + 80 p.
     * For PDF versions of these papers see folder
      \\Cruise_Data\DOCUMENTS\Analysis Reference Papers

        Data Processing Notes:
        ----------------------
            Transmissivity, PAR and SBE Fluorescence data are nominal and unedited.

            For details on how the transmissivity calibration parameters were calculated
               see the document in folder "\cruise_data\documents\transmissivity".
            SBE DO calibration was done using the method described in the SeaBird
               Application NOte #64-2.
            The Oxygen:Dissolved:SBE channel was corrupted for all or parts of
               Events #7, 10, 15, 17, 18, 19 and 21.

            For further processing details see the processing report 2011-01-proc.doc.

     July 2013: A correction has been applied to Nitrate_plus_Nitrite and Phosphate data from
     deep-water cruises analyzed at IOS between 2009 and 2012. For details see the following report:
     Corrections to Nitrate and Phosphate for Deep-Water Cruises from 2009 to 2012.pdf
     which is stored in folder:
        \\Cruise_Data\DOCUMENTS\Analysis Reference Papers

   Comments from secondary file:
   C:\Users\Samantha\OneDrive\Documents\SH ios\HPLC\2011\2011-001\2011-001-fixes\2011-001-0004.hplc
   ---------------------------------------------------------------------------
   Sample_Number   27: HPLC: >10%CV for TChl-a

*CALIBRATION

    $TABLE: CORRECTED CHANNELS
    !   Name                   Units    Fmla Pad    Coefficients
    !   ---------------------- -------- ---- ------ ------------
        Nitrate_plus_Nitrite   umol/L     10 -99    () (0.1709 0.9812)
        Phosphate              umol/L     10 -99    () (0.453E-01 1.0115)
    $END
!-1-- -2-- -3-- --4--- ---5---- --6-- ---7--- --8--- ---9---- --10-- --11- -12- --13-- 14 --15-- 16 ---17-- 18 --19-- 20 --21-- 22 --23-- 24 --25-- 26 --27-- ---28-- ---29-- ---30-- ---31-- ---32-- ---33-- ---34-- ---35-- ---36-- ---37-- ---38-- ---39-- ---40-- ---41-- ---42-- ---43-- ---44-- ---45-- ---46-- ---47-- ---48-- ---49-- ---50-- ---51-- ---52-- 53
!Samp Bott Bott Pressu Temperat Trans Fluores  PAR   Salinity Oxygen Oxyge Numb Nitrat Fl Silica Fl Phospha Fl Dimeth Fl Dimeth Fl Dimeth Fl Chloro Fl Phaeo- HPLC:   HPLC:   HPLC:   HPLC:   HPLC:   HPLC:   HPLC:   HPLC:   HPLC:   HPLC:   HPLC:   HPLC:   HPLC:   HPLC:   HPLC:   HPLC:   HPLC:   HPLC:   HPLC:   HPLC:   HPLC:   HPLC:   HPLC:   HPLC:B- HPLC:   Fl
!le_  le_  le:F re     ure:     missi cence:         :T1:C1   :      n:    er_o e_     ag te     ag te      ag yl_    ag ylsulf ag ylsulf ag phyll: ag Pigmen Chl-c3  Chlide- MgDVP   Chl-c2  Chl-c1  Me-     Peri    Pheide- But-    Fuco    Neo     Pras    Viola   Hex-    Diadino Allo    Diato   Zea     Lut     Chl-b   DVChl-a Chl-a   Phe     Car     TChl-a  ag
!Numb Numb ~ng_        Secondar vity  URU:                    Dissol Disso ~bin plus_  ~t        ~i         ~p Sulphi ~p ~piona ~o ~oprop ~T Extrac ~a t:             a                               chlide          a       fuco                                    fuco                                                                                            : 
!er   er   Sequ        y              Seapoin                 ved:   lved: _rec Nitrit ri        ca         ha de     hi te_Dis lv ionate ot ted    ct Extrac                                                                                                                                                                                                         HP
!          ence                       t                       SBE    SBE   ords e      te        te         te        de solved ed _Total al        ed ted                                                                                                                                                                                                            LC
!---- ---- ---- ------ -------- ----- ------- ------ -------- ------ ----- ---- ------ -- ------ -- ------- -- ------ -- ------ -- ------ -- ------ -- ------ ------- ------- ------- ------- ------- ------- ------- ------- ------- ------- ------- ------- ------- ------- ------- ------- ------- ------- ------- ------- ------- ------- ------- ------- ------- --
*END OF HEADER
   25   11   14    1.2   7.6804  56.0   0.492  253.5  29.1711   6.99 305.2  241  13.90 0   33.10 0    1.220 0    0.94 0    0.13 0   12.00 0    0.55 0    0.20 -99.000 -99.000 -99.000 -99.000 -99.000 -99.000 -99.000 -99.000 -99.000 -99.000 -99.000 -99.000 -99.000 -99.000 -99.000 -99.000 -99.000 -99.000 -99.000 -99.000 -99.000 -99.000 -99.000 -99.000 -99.000 0
   24   10   12    4.8   7.6247  56.5   0.831   77.7  29.1685   6.99 305.2  192  13.90 0   32.90 0    1.220 0    1.00 0    0.34 0   17.00 0    0.75 0    0.26 -99.000 -99.000 -99.000 -99.000 -99.000 -99.000 -99.000 -99.000 -99.000 -99.000 -99.000 -99.000 -99.000 -99.000 -99.000 -99.000 -99.000 -99.000 -99.000 -99.000 -99.000 -99.000 -99.000 -99.000 -99.000 0
   28   14   13    4.9   7.6204  56.6   0.820   77.7  29.1688   6.99 305.1  241 -99.00 0  -99.00 0  -99.000 0  -99.00 0  -99.00 0  -99.00 0    0.72 6    0.24   0.019   0.000   0.006   0.055   0.000   0.000   0.022   0.000   0.009   0.132   0.004   0.010   0.007   0.020   0.038   0.049   0.004   0.003   0.002   0.050   0.000   0.479   0.000   0.007   0.479 6
   23    9   11    9.6   7.6397  56.8   0.935   32.4  29.1971   6.97 304.2  241  13.70 0   32.40 0    1.210 0    0.92 0  -99.00 0  -99.00 0    0.60 0    0.25 -99.000 -99.000 -99.000 -99.000 -99.000 -99.000 -99.000 -99.000 -99.000 -99.000 -99.000 -99.000 -99.000 -99.000 -99.000 -99.000 -99.000 -99.000 -99.000 -99.000 -99.000 -99.000 -99.000 -99.000 -99.000 0
   22    8    9   14.8   8.1015  58.8   0.886   15.9  30.0198   6.77 295.2  241  12.50 0   27.40 0    1.180 0    0.79 0  -99.00 0  -99.00 0    0.49 0    0.29 -99.000 -99.000 -99.000 -99.000 -99.000 -99.000 -99.000 -99.000 -99.000 -99.000 -99.000 -99.000 -99.000 -99.000 -99.000 -99.000 -99.000 -99.000 -99.000 -99.000 -99.000 -99.000 -99.000 -99.000 -99.000 0
   27   13   10   14.8   8.0872  58.8   1.101   15.7  29.9872   6.79 296.1  241 -99.00 0  -99.00 0  -99.000 0  -99.00 0  -99.00 0  -99.00 0    0.40 6    0.25   0.025   0.000   0.006   0.048   0.002   0.000   0.010   0.000   0.013   0.159   0.008   0.009   0.005   0.038   0.018   0.010   0.000   0.000   0.000   0.056   0.000   0.421   0.000   0.006   0.421 36
   21    7    8   19.9   8.8124  59.3   0.951    9.4  31.6719   6.48 282.4  241  10.20 0   18.40 0    1.090 0    0.49 6    0.26 6   16.00 6    0.46 0    0.30 -99.000 -99.000 -99.000 -99.000 -99.000 -99.000 -99.000 -99.000 -99.000 -99.000 -99.000 -99.000 -99.000 -99.000 -99.000 -99.000 -99.000 -99.000 -99.000 -99.000 -99.000 -99.000 -99.000 -99.000 -99.000 0
   20    6    6   24.7   8.9294  60.6   0.980    6.9  32.1310   6.60 287.4  241   6.50 6   10.80 6    0.890 6    0.40 0  -99.00 0  -99.00 0    0.40 0    0.32 -99.000 -99.000 -99.000 -99.000 -99.000 -99.000 -99.000 -99.000 -99.000 -99.000 -99.000 -99.000 -99.000 -99.000 -99.000 -99.000 -99.000 -99.000 -99.000 -99.000 -99.000 -99.000 -99.000 -99.000 -99.000 0
   26   12    7   24.7   8.9305  60.6   0.946    6.9  32.1372   6.60 287.4  241 -99.00 0  -99.00 0  -99.000 0  -99.00 0  -99.00 0  -99.00 0    0.37 6    0.31   0.030   0.000   0.002   0.028   0.000   0.000   0.000   0.000   0.013   0.071   0.004   0.006   0.000   0.054   0.007   0.005   0.000   0.005   0.000   0.045   0.000   0.274   0.000   0.002   0.274 6
   19    5    5   29.8   8.9403  61.2   0.912    4.9  32.2362   6.62 288.4  241   5.70 0    8.70 0    0.830 0    0.36 0  -99.00 0  -99.00 0    0.38 6    0.36 -99.000 -99.000 -99.000 -99.000 -99.000 -99.000 -99.000 -99.000 -99.000 -99.000 -99.000 -99.000 -99.000 -99.000 -99.000 -99.000 -99.000 -99.000 -99.000 -99.000 -99.000 -99.000 -99.000 -99.000 -99.000 0
   18    4    4   39.5   8.9181  61.7   0.628    3.0  32.2492   6.59 286.9  241   6.70 0    8.70 0    0.830 0    0.33 0  -99.00 0  -99.00 0    0.28 0    0.31 -99.000 -99.000 -99.000 -99.000 -99.000 -99.000 -99.000 -99.000 -99.000 -99.000 -99.000 -99.000 -99.000 -99.000 -99.000 -99.000 -99.000 -99.000 -99.000 -99.000 -99.000 -99.000 -99.000 -99.000 -99.000 0
   17    3    3   50.2   8.7522  62.2   0.519    1.8  32.2768   6.61 288.0  241   5.80 0    8.60 0    0.860 0    0.31 0  -99.00 0  -99.00 0    0.22 0    0.31 -99.000 -99.000 -99.000 -99.000 -99.000 -99.000 -99.000 -99.000 -99.000 -99.000 -99.000 -99.000 -99.000 -99.000 -99.000 -99.000 -99.000 -99.000 -99.000 -99.000 -99.000 -99.000 -99.000 -99.000 -99.000 0
   16    2    2   74.8   8.9383  58.6   0.115    0.4  32.7561   5.26 228.8  241  13.60 0   18.30 0    1.320 0    0.00 0  -99.00 0  -99.00 0    0.07 0    0.25 -99.000 -99.000 -99.000 -99.000 -99.000 -99.000 -99.000 -99.000 -99.000 -99.000 -99.000 -99.000 -99.000 -99.000 -99.000 -99.000 -99.000 -99.000 -99.000 -99.000 -99.000 -99.000 -99.000 -99.000 -99.000 0
   15    1    1   99.1   8.5108  58.5   0.098    0.1  33.2480   3.99 173.6  241  22.10 0   29.50 0    1.830 0    0.00 0  -99.00 5    0.00 2    0.03 0    0.19 -99.000 -99.000 -99.000 -99.000 -99.000 -99.000 -99.000 -99.000 -99.000 -99.000 -99.000 -99.000 -99.000 -99.000 -99.000 -99.000 -99.000 -99.000 -99.000 -99.000 -99.000 -99.000 -99.000 -99.000 -99.000 0
