*2020/07/16 16:12:07.03
*IOS HEADER VERSION 2.0      2016/04/28 2016/06/13 IVF16

*FILE
    START TIME          : UTC 2015/06/09 15:05:22.000
    TIME INCREMENT      : 0 0 0 0.416667E-01 0  ! (day hr min sec ms)
    NUMBER OF RECORDS   : 17
    DATA DESCRIPTION    : Bottle:Rosette:Up:Stop + CTD:Up
    FILE TYPE           : ASCII
    CRC                 : 5CCBD239
    NUMBER OF CHANNELS  : 53

    $TABLE: CHANNELS
    ! No Name                                        Units           Minimum        Maximum
    !--- ------------------------------------------- --------------- -------------- --------------
       1 Sample_Number                               n/a             118            134
       2 Bottle_Number                               n/a             1              17
       3 Bottle:Firing_Sequence                      n/a             1              17
       4 Pressure                                    decibar         2.9            299
       5 Temperature:Primary                         'deg C (ITS90)' 6.2288         12.0299
       6 Transmissivity                              %/metre         33.7           65.5
       7 Fluorescence:URU:Seapoint                   mg/m^3          0.102          3.484
       8 PAR                                         uE/m^2/sec      0              743.4
       9 Salinity:T0:C0                              PSS-78          31.8273        33.9572
      10 Oxygen:Dissolved:SBE                        mL/L            1.97           6.61
      11 Oxygen:Dissolved:SBE                        umol/kg         85.4           288.1
      12 Number_of_bin_records                       n/a             121            241
      13 Nitrate_plus_Nitrite                        umol/L          0.3E-01        36.18
      14 Flag:Nitrate_plus_Nitrite                   n/a
      15 Silicate                                    umol/L          0.89           58.04
      16 Flag:Silicate                               n/a
      17 Phosphate                                   umol/L          0.305          2.538
      18 Flag:Phosphate                              n/a
      19 Dimethyl_Sulphide                           nmol/L          0              2.62
      20 Flag:Dimethyl_Sulphide                      n/a
      21 Dimethylsulfoniopropionate_Dissolved        nmol/L          -99            -99
      22 Flag:Dimethylsulfoniopropionate_Dissolved   ' '
      23 Dimethylsulfoniopropionate_Total            nmol/L          -99            -99
      24 Flag:Dimethylsulfoniopropionate_Total       ' '
      25 Chlorophyll:Extracted                       mg/m^3          0.23           3.47
      26 Flag:Chlorophyll:Extracted                  n/a
      27 Phaeo-Pigment:Extracted                     mg/m^3          0.55           0.92
      28 HPLC:Chl-c3                                 mg/m^3          0.66E-01       0.84E-01
      29 HPLC:Chlide-a                               mg/m^3          0.89E-01       0.117
      30 HPLC:MgDVP                                  mg/m^3          0.2E-01        0.34E-01
      31 HPLC:Chl-c2                                 mg/m^3          0.279          0.288
      32 HPLC:Chl-c1                                 mg/m^3          0.6E-01        0.68E-01
      33 HPLC:Me-chlide                              mg/m^3          0.27E-01       0.52E-01
      34 HPLC:Peri                                   mg/m^3          0              0.19E-01
      35 HPLC:Pheide-a                               mg/m^3          0              0
      36 HPLC:But-fuco                               mg/m^3          0              0
      37 HPLC:Fuco                                   mg/m^3          1.17           1.247
      38 HPLC:Neo                                    mg/m^3          0              0
      39 HPLC:Pras                                   mg/m^3          0              0
      40 HPLC:Viola                                  mg/m^3          0              0
      41 HPLC:Hex-fuco                               mg/m^3          0.4E-02        0.1E-01
      42 HPLC:Diadino                                mg/m^3          0.97E-01       0.131
      43 HPLC:Allo                                   mg/m^3          0.1E-01        0.12E-01
      44 HPLC:Diato                                  mg/m^3          0.3E-02        0.15E-01
      45 HPLC:Zea                                    mg/m^3          0.4E-02        0.7E-02
      46 HPLC:Lut                                    mg/m^3          0              0
      47 HPLC:Chl-b                                  mg/m^3          0.23E-01       0.48E-01
      48 HPLC:DVChl-a                                mg/m^3          0              0
      49 HPLC:Chl-a                                  mg/m^3          2.12           2.309
      50 HPLC:Phe-a                                  mg/m^3          0              0.164
      51 HPLC:B-Car                                  mg/m^3          0.37E-01       0.42E-01
      52 HPLC:TChl-a                                 mg/m^3          2.251          2.457
      53 Flag:HPLC                                   ' '
    $END

    $TABLE: CHANNEL DETAIL
    ! No  Pad   Start  Width  Format  Type  Decimal_Places
    !---  ----  -----  -----  ------  ----  --------------
       1  -99   ' '        5  I       I       0
       2  -99   ' '        3  I       I       0
       3  -99   ' '        3  I       I       0
       4  -99   ' '        7  F       ' '     1
       5  -99   ' '        9  F       ' '     4
       6  -99   ' '        6  F       ' '     1
       7  -99   ' '        8  F       ' '     3
       8  -99   ' '        7  F       ' '     1
       9  -99   ' '        9  F       ' '     4
      10  -99   ' '        7  F       ' '     2
      11  -99   ' '        6  F       ' '     1
      12  -99   ' '        5  I       I       0
      13  -99   ' '        7  F       R4      2
      14  0     ' '        3  NQ      C     ' '
      15  -99   ' '        7  F       R4      2
      16  0     ' '        3  NQ      C     ' '
      17  -99   ' '        8  F       R4      3
      18  0     ' '        3  NQ      C     ' '
      19  -99   ' '        7  F       R4      2
      20  0     ' '        3  NQ      C     ' '
      21  -99   ' '        7  F       R4      2
      22  0     ' '        3  NQ      C     ' '
      23  -99   ' '        7  F       R4      2
      24  0     ' '        3  NQ      C     ' '
      25  -99   ' '        7  F       R4      2
      26  0     ' '        3  NQ      C     ' '
      27  -99   ' '        7  F       R4      2
      28  -99   ' '        8  F       R4      3
      29  -99   ' '        8  F       R4      3
      30  -99   ' '        8  F       R4      3
      31  -99   ' '        8  F       R4      3
      32  -99   ' '        8  F       R4      3
      33  -99   ' '        8  F       R4      3
      34  -99   ' '        8  F       R4      3
      35  -99   ' '        8  F       R4      3
      36  -99   ' '        8  F       R4      3
      37  -99   ' '        8  F       R4      3
      38  -99   ' '        8  F       R4      3
      39  -99   ' '        8  F       R4      3
      40  -99   ' '        8  F       R4      3
      41  -99   ' '        8  F       R4      3
      42  -99   ' '        8  F       R4      3
      43  -99   ' '        8  F       R4      3
      44  -99   ' '        8  F       R4      3
      45  -99   ' '        8  F       R4      3
      46  -99   ' '        8  F       R4      3
      47  -99   ' '        8  F       R4      3
      48  -99   ' '        8  F       R4      3
      49  -99   ' '        8  F       R4      3
      50  -99   ' '        8  F       R4      3
      51  -99   ' '        8  F       R4      3
      52  -99   ' '        8  F       R4      3
      53  0     ' '        3  NQ      C     ' '
    $END
    $REMARKS
        Flag channels were initialized with zeros. Non-zero values have the following significance:
        ----------------------------------------------------------------------------------
        1 = Sample for this measurement was collected but not analyzed. Sample lost.
        2 = Acceptable Measurement
        3 = Questionable Measurement (Probably Good)
        4 = Poor Measurement (Probably Bad)
        5 = Measurement Not Reported (Bad)
        6 = Mean of replicate measurements
        7 = Manual chromatographic peak measurement
        8 = Irregular digital chromatographic peak integration
        9 = Sample was planned for this measurement from this bottle but was not collected
        ----------------------------------------------------------------------------------
    $END

*ADMINISTRATION
    MISSION             : 2015-09
    AGENCY              : IOS, Ocean Sciences Division, Sidney, B.C.
    COUNTRY             : Canada
    PROJECT             : Line P
    SCIENTIST           : Robert M.
    PLATFORM            : John P. Tully

*LOCATION
    GEOGRAPHIC AREA     : North-East Pacific
    STATION             : P4
    EVENT NUMBER        : 17
    LATITUDE            :  48  39.19000 N  ! (deg min)
    LONGITUDE           : 126  41.06000 W  ! (deg min)
    WATER DEPTH         : 1340

*INSTRUMENT
    TYPE                : Sea-Bird CTD
    MODEL               : SBE-911plus
    SERIAL NUMBER       : 0506
    LOCATION            : Mid-ship                              ! custom item

    $TABLE: SENSORS
    !   Name                                 Abs Depth       Serial No
    !   -----------------------------------  --------------  ----------
        Temperature                          ' '             2023
        Conductivity                         ' '             1763
        'Pressure:Digiquartz with TC'        ' '             0506
        Temperature:2                        ' '             5013
        Conductivity:2                       ' '             3394
        'Oxygen:SBE 43'                      ' '             1438
        Fluorometer:Seapoint                 ' '             3640
        'Transmissometer:WET Labs C-Star'    ' '             1396DR
        Altimeter                            ' '             62354
        PAR/Irradiance:Biospherical/Licor    ' '             4565
    $END
    $REMARKS
        SOFTWARE VERSION SEASAVE V 7.22.4
    $END

*HISTORY

    $TABLE: PROGRAMS
    !   Name     Vers   Date       Time     Recs In   Recs Out
    !   -------- ------ ---------- -------- --------- ---------
        SBE_IOS  3.4.1  2015/07/31 14:44:34      3859      3859
        CLEAN    5.2.1  2015/07/31 14:46:27      3859      3859
        ADDSAMP  3.6    2015/08/11 11:40:18      3859      3859
        BINAVE   4.2    2015/08/11 11:40:55      3859        17
        MERGE    3.5    2015/08/28 11:55:22        17        17
        CLEAN    5.2.1  2015/08/28 13:40:51        17        17
        CALIB    11.8.1 2015/08/28 13:41:27        17        17
        SORT     3.6    2015/08/28 13:41:42        17        17
        REMOVECH 8.2    2015/08/28 13:42:41        17        17
        CHGUNITS 3.1    2015/08/28 13:49:42        17        17
        CHGUNITS 3.1    2015/08/28 13:50:01        17        17
        REORDER  1.3.1  2015/08/28 13:50:07 ?         ?
        HDREDIT2 3.0.2  2015/08/28 13:50:39 ?         ?
        SORT     3.6    2019/06/19 11:08:08        17        17
        MERGE    3.5    2019/06/19 11:08:14        17        17
        SORT     3.6    2019/06/19 11:08:42        17        17
        HDREDIT2 3.2    2020/01/22 12:37:30 ?         ?
        SORT     3.6    2020/07/16 15:10:22        17        17
        REORDER  1.3.1  2020/07/16 15:10:34 ?         ?
        MERGE    3.5.1  2020/07/16 16:09:12        17        17
        SORT     3.6    2020/07/16 16:09:35        17        17
        HDREDIT2 3.2    2020/07/16 16:11:53 ?         ?
        HDREDIT2 3.2    2020/07/16 16:12:07 ?         ?
    $END
$REMARKS
    -CLEAN functions: 2015/07/31 14:46:19 20
     Reset #RECS, MIN & MAX values in header.
     Interpolation by   Channel  1: Scan_Number [n/a] in Pressure
     Set event to last  4 characters of file name
    -The following ADDSAMP parameters were used:
     Sample Number Lookup File: P:\Cruise_Data_Processing\2015-09\Processing\hydro\addsamp.csv
     Bottle Channel Name: Bottle_Number
    -The following BINAVE parameters were used:
     Bin channel = Bottle_Number
     Averaging interval =    1.00
     Minimum bin value =       0.000
     Bin value was used
     Interpolated values were NOT used for empty bins
     Channel 'NUMBER_OF_BIN_RECORDS' was added to file.
    -The following MERGE parameters were used: 2015/08/28 11:55:22
     Merge Channel: Bottle_Number
     Merge Scheme Used: Add Secondary to Primary
     Overlap Scheme Used: Keep Primary
     Primary Channels to Include: ALL
     Secondary Channels to Include:
       Salinity:Bottle,
       Flag:Salinity:Bottle,
       Chlorophyll:Extracted,
       Flag:Chlorophyll:Extracted,
       Phaeo-Pigment:Extracted,
       Oxygen:Dissolved,
       Flag:Oxygen:Dissolved,
       Temperature:Draw,
       Nitrate_plus_Nitrite,
       Flag:Nitrate_plus_Nitrite,
       Silicate,
       Flag:Silicate,
       Phosphate,
       Flag:Phosphate,
       Ammonium,
       Flag:Ammonium,
       pH,
       Flag:pH,
       Dimethyl_Sulphide,
       Flag:Dimethyl_Sulphide
     Primary file  : P:\Cruise_Data_Processing\2015-09\Processing\hydro\2015-09-0017.samavg
     Secondary file: P:\Cruise_Data_Processing\2015-09\Processing\hydro\2015-09-0017.mrgcln1s

    Comments from secondary file:
    P:\Cruise_Data_Processing\2015-09\Processing\hydro\2015-09-0017.mrgcln1s
    ------------------------------------------------------------------------
    -SORT parameters: 2015/08/28 11:51:21
    Sorted in ascending order of channel Bottle_Number
    -CLEAN functions: 2015/08/28 13:40:50 20
     Reset #RECS, MIN & MAX values in header.
     Change character data from " " to "0" in channels Flag:*
     Set event to last  4 characters of file name
    -CALIB parameters: 2015/08/28 13:41:27
     Calibration type = Correct
     Mode: ONLY - calibration specs from Cal File only.
     Calibration file = P:\Cruise_Data_Processing\2015-09\Processing\doc\2015-09-recal1.CCF
     Calibrations applied:
     Ch Name                          Units    Fmla Coefficents
     -- ----------------------------- --------- --- -----------------------------
     18 Oxygen:Dissolved:SBE          mL/L       10  0.4520000E-01  0.1024600E+01
    -SORT parameters: 2015/08/28 13:41:42
     Sorted in ascending order of channel Pressure*
    -REMOVECH 2015/08/28 13:42:41
     The following CHANNEL(S) were removed:
      Scan_Number
      Temperature:Secondary [deg C (ITS90)]
      Conductivity:Primary [S/m]
      Conductivity:Secondary [S/m]
      Oxygen:Voltage:SBE [volts]
      Altimeter [metres]
      Descent_Rate [m/s]
      Status:Pump
      Salinity:T1:C1 [PSS-78]
      Flag
    -CHANGE units:
     Temperature reference channel: Temperature:Primary
     Salinity    reference channel: Salinity:T0:C0
     'Oxygen:Dissolved:SBE' changed from mL/L    to umol/kg
    -CHANGE units:
     Temperature reference channel: Temperature:Draw
     Salinity    reference channel: Salinity:T0:C0
    - No units changed
    -HEADER EDITS: 2015/08/28 13:50:39
     Applied edit header: P:\Cruise_Data_Processing\2015-09\Processing\doc\HYDRO\2015-09-bot-hdr.txt
     Channel  2: Bottle:Firing_Sequence [n/a]
       Name:   Bottle_Number ==> Bottle:Firing_Sequence
     Channel  1: Bottle_Number [n/a]
       Name:   Bottle:Position ==> Bottle_Number
     Channel  3: Pressure [decibar]
       Format: F9.4 ==> F7.1
     Channel  7: PAR [uE/m^2/sec]
       Format: F11.3 ==> F7.1
     Channel  9: Oxygen:Dissolved:SBE [mL/L]
       Format: F8.3 ==> F7.2
     Channel 13: Chlorophyll:Extracted [mg/m^3]
       Units: ==> mg/m^3
       Format: F8.3 ==> F7.2
     Channel 14: Flag:Chlorophyll:Extracted [n/a]
       Units: ==> n/a
     Channel 15: Phaeo-Pigment:Extracted [mg/m^3]
       Units: ==> mg/m^3
     Channel 16: Nitrate_plus_Nitrite [umol/L]
       Units: ==> umol/L
       Format: F6.2 ==> F7.2
     Channel 17: Flag:Nitrate_plus_Nitrite [n/a]
       Units: ==> n/a
     Channel 18: Silicate [umol/L]
       Units: ==> umol/L
     Channel 19: Flag:Silicate [n/a]
       Units: ==> n/a
     Channel 20: Phosphate [umol/L]
       Units: ==> umol/L
     Channel 21: Flag:Phosphate [n/a]
       Units: ==> n/a
     Channel 22: Dimethyl_Sulphide [nmol/L]
       Units: ==> nmol/L
     Channel 23: Flag:Dimethyl_Sulphide [n/a]
       Units: ==> n/a
    -SORT parameters: 2019/06/19 11:08:08
     Sorted in ascending order of channel Sample_Number
    -The following MERGE parameters were used: 2019/06/19 11:08:14
     Merge Channel: Sample_Number
     Merge Scheme Used: Add Secondary to Primary
     Overlap Scheme Used: Keep Primary
     Primary Channels to Include: ALL
     Secondary Channels to Include:
       Dimethylsulfoniopropionate_Dissolved,
       Flag:Dimethylsulfoniopropionate_Dissolve,
       Dimethylsulfoniopropionate_Total,
       Flag:Dimethylsulfoniopropionate_Total
     Primary file  : P:\Cruise_Data_Processing\DMSP\2015-09\original\2015-009-0017.che1
     Secondary file: P:\Cruise_Data_Processing\DMSP\2015-09\original\2015-009-0017.dmsp
    -SORT parameters: 2019/06/19 11:08:42
     Sorted in ascending order of channel Pressure
    -HEADER EDITS: 2020/01/22 12:37:30 - none.
    -SORT parameters: 2020/07/16 15:10:22
     Sorted in ascending order of channel Sample_Number
    -The following MERGE parameters were used: 2020/07/16 16:09:12
     Merge Channel: Sample_Number
     Merge Scheme Used: Add Secondary to Primary
     Overlap Scheme Used: Keep Primary
     Primary Channels to Include: ALL
     Secondary Channels to Include:
       HPLC:Chl-c3,
       HPLC:Chlide-a,
       HPLC:MgDVP,
       HPLC:Chl-c2,
       HPLC:Chl-c1,
       HPLC:Me-chlide,
       HPLC:Peri,
       HPLC:Pheide-a,
       HPLC:But-fuco,
       HPLC:Fuco,
       HPLC:Neo,
       HPLC:Pras,
       HPLC:Viola,
       HPLC:Hex-fuco,
       HPLC:Diadino,
       HPLC:Allo,
       HPLC:Diato,
       HPLC:Zea,
       HPLC:Lut,
       HPLC:Chl-b,
       HPLC:DVChl-a,
       HPLC:Chl-a,
       HPLC:Phe-a,
       HPLC:B-Car,
       HPLC:TChl-a,
       Flag:HPLC
     Primary file  : D:\Telework\HPLC\2015-009\Processing\2015-009-0017.CHE2
     Secondary file: D:\Telework\HPLC\2015-009\Processing\2015-009-0017.hplc
    -SORT parameters: 2020/07/16 16:09:35
     Sorted in ascending order of channel Pressure
    -HEADER EDITS: 2020/07/16 16:11:53
     Applied edit header: D:\Telework\HPLC\2015-009\Processing\DOC\2015-009-bot-hdr1.txt
     Channel 12: Number_of_bin_records [n/a]
       Pad:    ' ' ==> -99
     Channel 48: HPLC:DVChl-a [mg/m^3]
       Pad:    0 ==> -99
    -HEADER EDITS: 2020/07/16 16:12:07
     Applied edit header: D:\Telework\HPLC\2015-009\Processing\DOC\2015-009-bot-hdr2.txt
$END

*COMMENTS
  SBE HEADER
    Sea-Bird SBE 9 Data File:
    FileName = E:\Data\2015-09\2015-09-0017.hex
    Software Version Seasave V 7.22.4
    Temperature SN = 2023
    Conductivity SN = 1763
    Number of Bytes Per Scan = 37
    Number of Voltage Words = 4
    Number of Scans Averaged by the Deck Unit = 1
    System UpLoad Time = Jun 09 2015 15:07:38
    NMEA Latitude = 48 39.19 N
    NMEA Longitude = 126 41.06 W
    NMEA UTC (Time) = Jun 09 2015  15:05:22
    Store Lat/Lon Data = Append to Every Scan
    SBE 11plus V 5.1e
    number of scans to average = 1
    pressure baud rate = 9600
    NMEA baud rate = 4800
    GPIB address = 1
    advance primary conductivity  0.073 seconds
    advance secondary conductivity  0.073 seconds
    advance voltage 6  0.000 seconds
    advance voltage 7  0.000 seconds
    S>
     Ship: J P Tully
     Cruise: 2015-09
     Depth: 1340
     Station: P4
    System UTC = Jun 09 2015 15:07:38
  # nquan = 19
  # nvalues = 3859
  # units = specified
  # name 0 = scan: Scan Count
  # name 1 = bpos: Bottle Position in Carousel
  # name 2 = nbf: Bottles Fired
  # name 3 = prDM: Pressure, Digiquartz [db]
  # name 4 = t090C: Temperature [ITS-90, deg C]
  # name 5 = t190C: Temperature, 2 [ITS-90, deg C]
  # name 6 = c0S/m: Conductivity [S/m]
  # name 7 = c1S/m: Conductivity, 2 [S/m]
  # name 8 = CStarTr0: Beam Transmission, WET Labs C-Star [%]
  # name 9 = flSP: Fluorescence, Seapoint
  # name 10 = sbeox0V: Oxygen raw, SBE 43 [V]
  # name 11 = par: PAR/Irradiance, Biospherical/Licor
  # name 12 = altM: Altimeter [m]
  # name 13 = dz/dtM: Descent Rate [m/s]
  # name 14 = pumps: Pump Status
  # name 15 = sal00: Salinity, Practical [PSU]
  # name 16 = sal11: Salinity, Practical, 2 [PSU]
  # name 17 = sbeox0ML/L: Oxygen, SBE 43 [ml/l]
  # name 18 = flag:  0.000e+00
  # interval = seconds: 0.0416667
  # start_time = Jun 09 2015 15:05:22 [NMEA time, header]
  # bad_flag = -9.990e-29
  # <Sensors count="13" >
  #   <sensor Channel="1" >
  #     <!-- Frequency 0, Temperature -->
  #     <TemperatureSensor SensorID="55" >
  #       <SerialNumber>2023</SerialNumber>
  #       <CalibrationDate>31-Jan-13</CalibrationDate>
  #       <UseG_J>1</UseG_J>
  #       <A>0.00000000e+000</A>
  #       <B>0.00000000e+000</B>
  #       <C>0.00000000e+000</C>
  #       <D>0.00000000e+000</D>
  #       <F0_Old>0.000</F0_Old>
  #       <G>4.11056177e-003</G>
  #       <H>6.24714349e-004</H>
  #       <I>1.97891287e-005</I>
  #       <J>1.88702998e-006</J>
  #       <F0>1000.000</F0>
  #       <Slope>1.00000000</Slope>
  #       <Offset>0.0000</Offset>
  #     </TemperatureSensor>
  #   </sensor>
  #   <sensor Channel="2" >
  #     <!-- Frequency 1, Conductivity -->
  #     <ConductivitySensor SensorID="3" >
  #       <SerialNumber>1763</SerialNumber>
  #       <CalibrationDate>01-Jan-14</CalibrationDate>
  #       <UseG_J>1</UseG_J>
  #       <!-- Cell const and series R are applicable only for wide range sensors.
   -->
  #       <SeriesR>0.0000</SeriesR>
  #       <CellConst>2000.0000</CellConst>
  #       <ConductivityType>0</ConductivityType>
  #       <Coefficients equation="0" >
  #         <A>0.00000000e+000</A>
  #         <B>0.00000000e+000</B>
  #         <C>0.00000000e+000</C>
  #         <D>0.00000000e+000</D>
  #         <M>0.0</M>
  #         <CPcor>-9.57000000e-008</CPcor>
  #       </Coefficients>
  #       <Coefficients equation="1" >
  #         <G>-4.22314873e+000</G>
  #         <H>5.07768024e-001</H>
  #         <I>-5.15940128e-004</I>
  #         <J>5.09668877e-005</J>
  #         <CPcor>-9.57000000e-008</CPcor>
  #         <CTcor>3.2500e-006</CTcor>
  #         <!-- WBOTC not applicable unless ConductivityType = 1. -->
  #         <WBOTC>0.00000000e+000</WBOTC>
  #       </Coefficients>
  #       <Slope>1.00000000</Slope>
  #       <Offset>0.00000</Offset>
  #     </ConductivitySensor>
  #   </sensor>
  #   <sensor Channel="3" >
  #     <!-- Frequency 2, Pressure, Digiquartz with TC -->
  #     <PressureSensor SensorID="45" >
  #       <SerialNumber>0506</SerialNumber>
  #       <CalibrationDate>30-Dec-13</CalibrationDate>
  #       <C1>-4.957807e+004</C1>
  #       <C2>-1.280011e+000</C2>
  #       <C3>1.485710e-002</C3>
  #       <D1>4.021200e-002</D1>
  #       <D2>0.000000e+000</D2>
  #       <T1>3.037224e+001</T1>
  #       <T2>-6.696188e-004</T2>
  #       <T3>3.897170e-006</T3>
  #       <T4>3.287590e-009</T4>
  #       <Slope>0.99997945</Slope>
  #       <Offset>-0.25000</Offset>
  #       <T5>0.000000e+000</T5>
  #       <AD590M>1.280810e-002</AD590M>
  #       <AD590B>-9.210198e+000</AD590B>
  #     </PressureSensor>
  #   </sensor>
  #   <sensor Channel="4" >
  #     <!-- Frequency 3, Temperature, 2 -->
  #     <TemperatureSensor SensorID="55" >
  #       <SerialNumber>5013</SerialNumber>
  #       <CalibrationDate>27-Feb-13</CalibrationDate>
  #       <UseG_J>1</UseG_J>
  #       <A>0.00000000e+000</A>
  #       <B>0.00000000e+000</B>
  #       <C>0.00000000e+000</C>
  #       <D>0.00000000e+000</D>
  #       <F0_Old>0.000</F0_Old>
  #       <G>4.36833110e-003</G>
  #       <H>6.37693324e-004</H>
  #       <I>2.08227492e-005</I>
  #       <J>1.72454648e-006</J>
  #       <F0>1000.000</F0>
  #       <Slope>1.00000000</Slope>
  #       <Offset>0.0000</Offset>
  #     </TemperatureSensor>
  #   </sensor>
  #   <sensor Channel="5" >
  #     <!-- Frequency 4, Conductivity, 2 -->
  #     <ConductivitySensor SensorID="3" >
  #       <SerialNumber>3394</SerialNumber>
  #       <CalibrationDate>03-Jan-14</CalibrationDate>
  #       <UseG_J>1</UseG_J>
  #       <!-- Cell const and series R are applicable only for wide range sensors.
   -->
  #       <SeriesR>0.0000</SeriesR>
  #       <CellConst>2000.0000</CellConst>
  #       <ConductivityType>0</ConductivityType>
  #       <Coefficients equation="0" >
  #         <A>0.00000000e+000</A>
  #         <B>0.00000000e+000</B>
  #         <C>0.00000000e+000</C>
  #         <D>0.00000000e+000</D>
  #         <M>0.0</M>
  #         <CPcor>-9.57000000e-008</CPcor>
  #       </Coefficients>
  #       <Coefficients equation="1" >
  #         <G>-9.62060268e+000</G>
  #         <H>1.47483016e+000</H>
  #         <I>-1.36190582e-003</I>
  #         <J>1.93968125e-004</J>
  #         <CPcor>-9.57000000e-008</CPcor>
  #         <CTcor>3.2500e-006</CTcor>
  #         <!-- WBOTC not applicable unless ConductivityType = 1. -->
  #         <WBOTC>0.00000000e+000</WBOTC>
  #       </Coefficients>
  #       <Slope>1.00000000</Slope>
  #       <Offset>0.00000</Offset>
  #     </ConductivitySensor>
  #   </sensor>
  #   <sensor Channel="6" >
  #     <!-- A/D voltage 0, Oxygen, SBE 43 -->
  #     <OxygenSensor SensorID="38" >
  #       <SerialNumber>1438</SerialNumber>
  #       <CalibrationDate>03-Jan-14</CalibrationDate>
  #       <Use2007Equation>1</Use2007Equation>
  #       <CalibrationCoefficients equation="0" >
  #         <!-- Coefficients for Owens-Millard equation. -->
  #         <Boc>0.0000</Boc>
  #         <Soc>0.0000e+000</Soc>
  #         <offset>0.0000</offset>
  #         <Pcor>0.00e+000</Pcor>
  #         <Tcor>0.0000</Tcor>
  #         <Tau>0.0</Tau>
  #       </CalibrationCoefficients>
  #       <CalibrationCoefficients equation="1" >
  #         <!-- Coefficients for Sea-Bird equation - SBE calibration in 2007 and
  later. -->
  #         <Soc>4.7181e-001</Soc>
  #         <offset>-0.5187</offset>
  #         <A>-2.2511e-003</A>
  #         <B> 1.3917e-004</B>
  #         <C>-2.6436e-006</C>
  #         <D0> 2.5826e+000</D0>
  #         <D1> 1.92634e-004</D1>
  #         <D2>-4.64803e-002</D2>
  #         <E> 3.6000e-002</E>
  #         <Tau20> 1.4300</Tau20>
  #         <H1>-3.3000e-002</H1>
  #         <H2> 5.0000e+003</H2>
  #         <H3> 1.4500e+003</H3>
  #       </CalibrationCoefficients>
  #     </OxygenSensor>
  #   </sensor>
  #   <sensor Channel="7" >
  #     <!-- A/D voltage 1, Fluorometer, Seapoint -->
  #     <FluoroSeapointSensor SensorID="11" >
  #       <SerialNumber>3640</SerialNumber>
  #       <CalibrationDate></CalibrationDate>
  #       <!-- The following is an array index, not the actual gain setting. -->
  #       <GainSetting>2</GainSetting>
  #       <Offset>0.000</Offset>
  #     </FluoroSeapointSensor>
  #   </sensor>
  #   <sensor Channel="8" >
  #     <!-- A/D voltage 2, Transmissometer, WET Labs C-Star -->
  #     <WET_LabsCStar SensorID="71" >
  #       <SerialNumber>1396DR</SerialNumber>
  #       <CalibrationDate>Feb 5tht 2014</CalibrationDate>
  #       <M>19.0844</M>
  #       <B>-0.0191</B>
  #       <PathLength>0.250</PathLength>
  #     </WET_LabsCStar>
  #   </sensor>
  #   <sensor Channel="9" >
  #     <!-- A/D voltage 3, Free -->
  #   </sensor>
  #   <sensor Channel="10" >
  #     <!-- A/D voltage 4, Altimeter -->
  #     <AltimeterSensor SensorID="0" >
  #       <SerialNumber>62354</SerialNumber>
  #       <CalibrationDate></CalibrationDate>
  #       <ScaleFactor>15.000</ScaleFactor>
  #       <Offset>0.000</Offset>
  #     </AltimeterSensor>
  #   </sensor>
  #   <sensor Channel="11" >
  #     <!-- A/D voltage 5, Free -->
  #   </sensor>
  #   <sensor Channel="12" >
  #     <!-- A/D voltage 6, PAR/Irradiance, Biospherical/Licor -->
  #     <PAR_BiosphericalLicorChelseaSensor SensorID="42" >
  #       <SerialNumber>4565</SerialNumber>
  #       <CalibrationDate>Mar-16-2011</CalibrationDate>
  #       <M>1.00000000</M>
  #       <B>0.00000000</B>
  #       <CalibrationConstant>4115226337.44999980</CalibrationConstant>
  #       <Multiplier>1.00000000</Multiplier>
  #       <Offset>-0.36780000</Offset>
  #     </PAR_BiosphericalLicorChelseaSensor>
  #   </sensor>
  #   <sensor Channel="13" >
  #     <!-- A/D voltage 7, Free -->
  #   </sensor>
  # </Sensors>
  # datcnv_date = Jul 31 2015 12:21:27, 7.23.2
  # datcnv_in = P:\Cruise_Data_Processing\2015-09\RAW\CTD\2015-09-0017.hex P:\Crui
  se_Data_Processing\2015-09\Processing\doc\2015-09-ctd.XMLCON
  # datcnv_ox_hysteresis_correction = yes
  # datcnv_ox_tau_correction = yes
  # datcnv_bottle_scan_range_source = BL file
  # datcnv_scans_per_bottle = 241
   END*

  Comments from secondary file:
  P:\Cruise_Data_Processing\DMSP\2015-09\original\2015-009-0017.dmsp
  ------------------------------------------------------------------
  Sample_Number  119: DMSP-D & DMSP-T:  Elevated levels in the blank therefore sample data not valid
  Sample_Number  120: DMSP-D & DMSP-T:  Elevated levels in the blank therefore sample data not valid
  Sample_Number  121: DMSP-D & DMSP-T:  Elevated levels in the blank therefore sample data not valid
  Sample_Number  127: DMSP-D & DMSP-T:  Elevated levels in the blank therefore sample data not valid
  Sample_Number  130: DMSP-D & DMSP-T:  Elevated levels in the blank therefore sample data not valid
  Sample_Number  131: DMSP-D & DMSP-T:  Elevated levels in the blank therefore sample data not valid

  Analysis methods:
  -----------------
      Chlorophyll samples were filtered onto 25mm GF/F filters and stored in glass
      scintillation vials at -80C prior to analysis. Samples were extracted in
      90% acetone at -20C for 24 hours in the lab and analyzed on a Turner 10AU fluorometer
      calibrated with commercially pure chlorophyll a standard (Sigma).
      Fluorescence readings taken before and after acidification were used to
      calculate chlorophyll and phaeopigment concentrations (Holm-Hansen et al 1965).
      Chlorophyll samples were analyzed at IOS in Room 2423 ~3 weeks after the cruise.
      The average of two samples is reported. Variability is assessed as the
      CV% (std dev / mean*100).
      For details see worksheet “CV%” in file QF2015-09CHL*.xls.
      Flags and comments apply to chlorophyll values only.
      No flags or comments are assigned for Phaeopigment values.

      HPLC samples were filtered onto 47mm GF/F filters and stored at -80C prior to
      analysis.
      Samples were extracted in 95% methanol at -20C for 24 hours in the lab and analyzed
      on a WATERS 2695 HPLC separations system as detailed in Nemcek and Pena, 2014.
      Analysis was performed 4 to 6 weeks after collection.
      The average of two samples is reported.
      Variability is assessed as the %CV (std dev/mean*100) for duplicate pairs.
      All pigments below the limit of detection (LOD) are assigned a zero value.
      TChl-a is the sum of Chl-a, DVchl-a, Chlide-a and Me-chlide
      For further information see file QF2015-009HPLC*.xlsx.

      Oxygen samples were analyzed at sea using an automated Winkler titration system
      (Metrohm Dosimat model 876 and a UV light source and detector with a 365nm filter
      controlled by LV02_876 software designed and constructed by Scripps Institution
      of Oceanography) with modifications based on Carpenter (1965) and adhering to
      WOCE protocols (Culberson 1991).
      For details including a duplicate analysis, see document QF2015-09OXY*.xls.

      Salinity samples were collected in 200 mL type ll glass bottles with
      disposable plastic inserts and screw caps supplied by Ocean Scientific
      International Limited. They were analyzed in a temperature-controlled lab at IOS
      on a Guildline 8400B Salinometer (S/N 68572) standardized with IAPSO standard
      seawater 13 to 37 days after collection.
      For details including a duplicate analysis, see document QF2015-09SAL*.xls.

      Nutrient samples were collected in plastic tubes and quick frozen in aluminum
      blocks stored in -20 freezer. One set of samples was collected and frozen immediately.
      Another set of samples from 400m and deeper (to be used for silicate analysis) was
      collected and stored at 4C in the dark. All samples were returned to IOS for
      analysis. They were analyzed using an Astoria analyzer following methods described
      in IOS Nutrient Methods (1996) Barwell-Clarke and Whitney.
      For details including a duplicate analysis, see document QF2015-09nuts*.xls.

      DMS samples were collected in 250mL ground glass stoppered bottles and stored in a
      fridge, in the dark and removed one at a time before analysis. A sample was loaded
      onto the stripper and purged with UHP Nitrogen for 10 minutes at ~100mL/min.
      The DMS was extracted from the water and absorbed on to a Tenax TA trap kept at -80C.
      The trap was subsequently desorbed at 100C (with a deware containing boiling water)
      onto a Choromasorb 330 column which eluted onto a Flame Photometric Detector (PFD).
      All samples were run as soon as possible after being collected.
      For more detail see file 2015-09 DMS report.doc and for data and duplicate analysis
      see "DMS summary (2015-09 data).xls."
      The minimum detectable level for DMS is 0.10 nmol/L, so “0” values should be
      interpreted as <0.10nmol/L.

      DMSP-D: Approximately 20-75mL of seawater was allowed to flow directly from the Niskin
      into a filtration funnel containing a 0.7um GF/F filter.  The first 3.5mL was collected
      in a polypropylene tube (15mL) containing 50uL of a 50% sulphuric acid solution.
      DMPS-T: 3.5mL of seawater was collected directly from the Niskin into a polypropylene
      tube (15mL) containing 50uL of a 50% sulphuric acid solution (50%).
      DMSP-D and DMSP-T:
      Samples are stored in the dark at 4 degrees C for a minimum of 24 hours. They are
      hydrolized and analyzed later at the Institute of Ocean Sciences.
      The minimum detectable level is 0.1 nM, so “0” values should be interpreted as <0.1 nM.
      For details on analysis and raw data, see document "2015-09 dmsp QF summary.xls.


      References:
      1. Barwell-Clarke, J. and Whitney, F. 1996. Institute of Ocean Sciences
      Nutrient Methods and Analysis. Canadian Technical Report of Hydrography
      and Ocean Sciences, No. 182, 43 pp.
      2. Carpenter, J.H. 1965. The Chesapeake Bay Institute Technique for the
      Winkler Dissolved Oxygen Method. Limmnol. & Oceanogr., 10: 141-143.
      3. Culberson, C.H. 1991. Dissolved oxygen. WOCE Hydrographic
      Programme Operations and Methods (July 1991). 15pp.
      4. Holm-Hansen, O., Lorenzen, C.J., Holmes, R.W., and Strickland J.D.H. 1965.
      Fluorometric Determination of Chlorophyll. J.du Cons. Intl. Pour l’Epl.
      De la Mer. 30:3-15.
      5. Nemcek, N. and Peña, M.A. 2014. Institute of Ocean Sciences Protocols for
      Phytoplankton Pigment Analysis by HPLC. Can. Tech. Rep. Fish. Aquat. Sci.
      3117: x + 80 p.

      * For PDF versions of these papers see folder
       \\Cruise_Data\DOCUMENTS\Analysis Reference Papers
      ---------------------------------------------------------------------------------

      CTD Data Processing Notes:
      --------------------------

      Transmissivity, Fluorescence and PAR data are nominal and unedited except that
      some records were removed in editing temperature and salinity.

      For details on how the transmissivity calibration parameters were calculated
      see the document in folder "\cruise_data\documents\transmissivity".

      Dissolved oxygen was calibrated using the method described in SeaBird
      Application Note #64-2, June 2012 revision, except that a small
      offset in the fit was allowed.

      For details on the processing see the report: 2015-09_Processing_Report.doc.

      ---------------------------------------------------------------------------------

*CALIBRATION

    $TABLE: CORRECTED CHANNELS
    !   Name                   Units  Fmla Pad    Coefficients
    !   ---------------------- ------ ---- ------ ------------
        Oxygen:Dissolved:SBE   mL/L     10 -99    () (0.452E-01 1.0246)
    $END
!-1-- 2- 3- --4--- ---5---- --6-- ---7--- --8--- ---9---- --10-- --11- -12- --13-- 14 --15-- 16 ---17-- 18 --19-- 20 --21-- 22 --23-- 24 --25-- 26 --27-- ---28-- ---29-- ---30-- ---31-- ---32-- ---33-- ---34-- ---35-- ---36-- ---37-- ---38-- ---39-- ---40-- ---41-- ---42-- ---43-- ---44-- ---45-- ---46-- ---47-- ---48-- ---49-- ---50-- ---51-- ---52-- 53
!Samp Bo Bo Pressu Temperat Trans Fluores  PAR   Salinity Oxygen Oxyge Numb Nitrat Fl Silica Fl Phospha Fl Dimeth Fl Dimeth Fl Dimeth Fl Chloro Fl Phaeo- HPLC:   HPLC:   HPLC:   HPLC:   HPLC:   HPLC:   HPLC:   HPLC:   HPLC:   HPLC:   HPLC:   HPLC:   HPLC:   HPLC:   HPLC:   HPLC:   HPLC:   HPLC:   HPLC:   HPLC:   HPLC:   HPLC:   HPLC:   HPLC:B- HPLC:   Fl
!le_  tt tt re     ure:     missi cence:         :T0:C0   :      n:    er_o e_     ag te     ag te      ag yl_    ag ylsulf ag ylsulf ag phyll: ag Pigmen Chl-c3  Chlide- MgDVP   Chl-c2  Chl-c1  Me-     Peri    Pheide- But-    Fuco    Neo     Pras    Viola   Hex-    Diadino Allo    Diato   Zea     Lut     Chl-b   DVChl-a Chl-a   Phe-a   Car     TChl-a  ag
!Numb ~u ~u        Primary  vity  URU:                    Dissol Disso ~bin plus_  ~t        ~i         ~p Sulphi ~p ~piona ~o ~oprop ~T Extrac ~a t:             a                               chlide          a       fuco                                    fuco                                                                                            : 
!er   mb en                       Seapoin                 ved:   lved: _rec Nitrit ri        ca         ha de     hi te_Dis lv ionate ot ted    ct Extrac                                                                                                                                                                                                         HP
!     er ce                       t                       SBE    SBE   ords e      te        te         te        de solved ed _Total al        ed ted                                                                                                                                                                                                            LC
!---- -- -- ------ -------- ----- ------- ------ -------- ------ ----- ---- ------ -- ------ -- ------- -- ------ -- ------ -- ------ -- ------ -- ------ ------- ------- ------- ------- ------- ------- ------- ------- ------- ------- ------- ------- ------- ------- ------- ------- ------- ------- ------- ------- ------- ------- ------- ------- ------- --
*END OF HEADER
  131 14 17    2.9  12.0299  33.7   1.634  743.4  31.8273   6.61 288.1  241   0.06 0    0.96 0    0.308 0    2.39 0  -99.00 1  -99.00 1    3.26 0    0.92 -99.000 -99.000 -99.000 -99.000 -99.000 -99.000 -99.000 -99.000 -99.000 -99.000 -99.000 -99.000 -99.000 -99.000 -99.000 -99.000 -99.000 -99.000 -99.000 -99.000   0.000 -99.000 -99.000 -99.000 -99.000
  134 17 16    5.0  12.0175  39.8   2.081  360.4  31.8323   6.58 287.0  241 -99.00 0  -99.00 0  -99.000 0  -99.00 0  -99.00    -99.00      3.43 6    0.92   0.066   0.104   0.020   0.285   0.060   0.027   0.000   0.000   0.000   1.170   0.000   0.000   0.000   0.010   0.131   0.010   0.015   0.007   0.000   0.023   0.000   2.120   0.000   0.037   2.251 6
  130 13 15    5.1  12.0106  34.8   2.033  233.3  31.8330   6.60 287.7  155   0.05 0    0.97 0    0.325 0    2.61 0  -99.00 1  -99.00 1    3.41 0    0.82 -99.000 -99.000 -99.000 -99.000 -99.000 -99.000 -99.000 -99.000 -99.000 -99.000 -99.000 -99.000 -99.000 -99.000 -99.000 -99.000 -99.000 -99.000 -99.000 -99.000   0.000 -99.000 -99.000 -99.000 -99.000
  129 12 14   10.0  11.9959  45.3   3.054  123.2  31.8375   6.59 287.2  241   0.05 6    0.96 6    0.323 6    2.62 0  -99.00    -99.00      3.47 0    0.82 -99.000 -99.000 -99.000 -99.000 -99.000 -99.000 -99.000 -99.000 -99.000 -99.000 -99.000 -99.000 -99.000 -99.000 -99.000 -99.000 -99.000 -99.000 -99.000 -99.000   0.000 -99.000 -99.000 -99.000 -99.000
  128 11 12   14.2  11.9815  45.3   3.193   31.2  31.8400   6.58 287.0  209   0.06 0    0.89 0    0.320 0    2.38 0  -99.00    -99.00      3.35 0    0.87 -99.000 -99.000 -99.000 -99.000 -99.000 -99.000 -99.000 -99.000 -99.000 -99.000 -99.000 -99.000 -99.000 -99.000 -99.000 -99.000 -99.000 -99.000 -99.000 -99.000   0.000 -99.000 -99.000 -99.000 -99.000
  133 16 13   14.3  11.9850  45.6   2.935   29.4  31.8391   6.58 286.7  241 -99.00 0  -99.00 0  -99.000 0  -99.00 0  -99.00    -99.00      3.45 6    0.88   0.071   0.117   0.028   0.288   0.068   0.031   0.010   0.000   0.000   1.247   0.000   0.000   0.000   0.010   0.114   0.012   0.013   0.004   0.000   0.030   0.000   2.309   0.164   0.042   2.457 6
  127 10 11   20.7  11.9859  45.3   3.200   18.1  31.8388   6.58 287.0  241   0.03 0    0.92 0    0.305 0    2.46 6  -99.00 1  -99.00 1    3.38 6    0.81 -99.000 -99.000 -99.000 -99.000 -99.000 -99.000 -99.000 -99.000 -99.000 -99.000 -99.000 -99.000 -99.000 -99.000 -99.000 -99.000 -99.000 -99.000 -99.000 -99.000   0.000 -99.000 -99.000 -99.000 -99.000
  126  9 10   24.9  11.9818  45.5   3.484    7.7  31.8397   6.58 286.8  241   0.04 0    0.94 0    0.321 0    2.22 0  -99.00    -99.00      3.42 0    0.80 -99.000 -99.000 -99.000 -99.000 -99.000 -99.000 -99.000 -99.000 -99.000 -99.000 -99.000 -99.000 -99.000 -99.000 -99.000 -99.000 -99.000 -99.000 -99.000 -99.000   0.000 -99.000 -99.000 -99.000 -99.000
  132 15  9   29.4  11.8727  47.2   2.994    2.3  31.8579   6.57 286.2  241 -99.00 0  -99.00 0  -99.000 0  -99.00 0  -99.00    -99.00      3.16 6    0.90   0.084   0.089   0.034   0.279   0.068   0.052   0.019   0.000   0.000   1.230   0.000   0.000   0.000   0.004   0.097   0.012   0.003   0.004   0.000   0.048   0.000   2.239   0.097   0.037   2.380 6
  125  8  8   29.5  11.8904  47.2   2.929    2.3  31.8537   6.53 284.6  121   0.09 0    1.01 0    0.332 0    1.96 0  -99.00    -99.00      3.06 0    0.85 -99.000 -99.000 -99.000 -99.000 -99.000 -99.000 -99.000 -99.000 -99.000 -99.000 -99.000 -99.000 -99.000 -99.000 -99.000 -99.000 -99.000 -99.000 -99.000 -99.000   0.000 -99.000 -99.000 -99.000 -99.000
  124  7  7   40.2  10.7134  62.3   0.310    0.9  32.0881   6.26 272.7  241   1.08 0    2.02 0    0.543 0    1.08 0  -99.00    -99.00      0.35 0    0.55 -99.000 -99.000 -99.000 -99.000 -99.000 -99.000 -99.000 -99.000 -99.000 -99.000 -99.000 -99.000 -99.000 -99.000 -99.000 -99.000 -99.000 -99.000 -99.000 -99.000   0.000 -99.000 -99.000 -99.000 -99.000
  123  6  6   50.1  10.4275  62.4   0.232    0.3  32.1696   6.25 272.2  241   2.94 0    4.62 0    0.651 0    1.43 0  -99.00    -99.00      0.28 0    0.76 -99.000 -99.000 -99.000 -99.000 -99.000 -99.000 -99.000 -99.000 -99.000 -99.000 -99.000 -99.000 -99.000 -99.000 -99.000 -99.000 -99.000 -99.000 -99.000 -99.000   0.000 -99.000 -99.000 -99.000 -99.000
  122  5  5   74.6  10.0008  64.3   0.188    0.0  32.3980   5.75 250.4  241   6.39 0    9.52 0    0.941 0    1.05 0  -99.00    -99.00      0.23 0    0.79 -99.000 -99.000 -99.000 -99.000 -99.000 -99.000 -99.000 -99.000 -99.000 -99.000 -99.000 -99.000 -99.000 -99.000 -99.000 -99.000 -99.000 -99.000 -99.000 -99.000   0.000 -99.000 -99.000 -99.000 -99.000
  121  4  4  100.0   8.6777  64.3   0.174    0.0  32.7575   5.06 220.2  241  15.30 0   18.17 0    1.352 0    0.56 0  -99.00 1  -99.00 1    0.28 0    0.63 -99.000 -99.000 -99.000 -99.000 -99.000 -99.000 -99.000 -99.000 -99.000 -99.000 -99.000 -99.000 -99.000 -99.000 -99.000 -99.000 -99.000 -99.000 -99.000 -99.000   0.000 -99.000 -99.000 -99.000 -99.000
  120  3  3  174.9   7.5085  65.1   0.108    0.0  33.7563   3.16 137.4  241  28.61 0   37.86 0    2.042 0    0.19 0  -99.00 1  -99.00 1  -99.00 0  -99.00 -99.000 -99.000 -99.000 -99.000 -99.000 -99.000 -99.000 -99.000 -99.000 -99.000 -99.000 -99.000 -99.000 -99.000 -99.000 -99.000 -99.000 -99.000 -99.000 -99.000   0.000 -99.000 -99.000 -99.000 -99.000
  119  2  2  200.0   7.2203  65.3   0.111    0.0  33.8684   2.90 126.3  241  30.37 0   42.17 0    2.157 0    0.00 0  -99.00 1  -99.00 1  -99.00 0  -99.00 -99.000 -99.000 -99.000 -99.000 -99.000 -99.000 -99.000 -99.000 -99.000 -99.000 -99.000 -99.000 -99.000 -99.000 -99.000 -99.000 -99.000 -99.000 -99.000 -99.000   0.000 -99.000 -99.000 -99.000 -99.000
  118  1  1  299.0   6.2288  65.5   0.102    0.0  33.9572   1.97  85.4  241  36.18 0   58.04 0    2.538 0    0.00 0  -99.00    -99.00    -99.00 0  -99.00 -99.000 -99.000 -99.000 -99.000 -99.000 -99.000 -99.000 -99.000 -99.000 -99.000 -99.000 -99.000 -99.000 -99.000 -99.000 -99.000 -99.000 -99.000 -99.000 -99.000   0.000 -99.000 -99.000 -99.000 -99.000
